#Time/s	     Potential/V	Current/A	resistance/Ohm	Charge/C               Frequency/Hz	mass/g
145.9586	-0.20300	-1.85E-05	1137.92900	0	0	0
146.0120	-0.20404	-2.00E-05	1137.79438	-1.07E-06	-0.71618	7.65E-10
146.06541	-0.20511	-2.11E-05	1138.29103	-2.20E-06	-4.81102	5.14E-09
146.11882	-0.20618	-2.18E-05	1138.74566	-3.36E-06	-6.99061	7.47E-09
146.17222	-0.20724	-2.25E-05	1139.0287	-4.56E-06	-5.70214	6.09E-09
146.22563	-0.20831	-2.31E-05	1139.3377	-5.80E-06	-5.67919	6.07E-09
146.27903	-0.20941	-2.36E-05	1139.70084	-7.06E-06	-2.3986	2.56E-09
146.33244	-0.21048	-2.41E-05	1139.84695	-8.35E-06	-2.60246	2.78E-09
146.38585	-0.21152	-2.45E-05	1139.72946	-9.66E-06	-1.68045	1.79E-09
146.43925	-0.21262	-2.49E-05	1139.7573	-1.10E-05	-6.49575	6.94E-09
146.49266	-0.21365	-2.54E-05	1139.89081	-1.23E-05	-1.98621	2.12E-09
146.54606	-0.21472	-2.57E-05	1139.36788	-1.37E-05	-4.05191	4.33E-09
146.59947	-0.21582	-2.59E-05	1138.57217	-1.51E-05	-4.98121	5.32E-09
146.65288	-0.21689	-2.64E-05	1138.48899	-1.65E-05	0.95928	-1.02E-09
146.70628	-0.21796	-2.64E-05	1138.54773	-1.79E-05	-4.12635	4.41E-09
146.75969	-0.21902	-2.69E-05	1138.37545	-1.94E-05	-3.35797	3.59E-09
146.81309	-0.22006	-2.71E-05	1138.23181	-2.08E-05	-3.32494	3.55E-09
146.8665	-0.22113	-2.72E-05	1138.47746	-2.23E-05	-3.43038	3.66E-09
146.91991	-0.22223	-2.76E-05	1138.65614	-2.37E-05	-4.68379	5.00E-09
146.97331	-0.22327	-2.77E-05	1138.59206	-2.52E-05	-5.2161	5.57E-09
147.02672	-0.22437	-2.78E-05	1138.69132	-2.67E-05	-7.04428	7.52E-09
147.08012	-0.22543	-2.80E-05	1139.10252	-2.82E-05	-5.84745	6.25E-09
147.13353	-0.22650	-2.82E-05	1139.17659	-2.97E-05	-5.75919	6.15E-09
147.18694	-0.22754	-2.84E-05	1138.8722	-3.12E-05	-5.78668	6.18E-09
147.24034	-0.22864	-2.86E-05	1138.61255	-3.27E-05	-4.74764	5.07E-09
147.29375	-0.22968	-2.87E-05	1138.38292	-3.43E-05	-2.3131	2.47E-09
147.34715	-0.23074	-2.88E-05	1138.39366	-3.58E-05	-7.98797	8.53E-09
147.40056	-0.23184	-2.90E-05	1138.49513	-3.74E-05	-3.14552	3.36E-09
147.45397	-0.23291	-2.95E-05	1138.6604	-3.89E-05	1.11572	-1.19E-09
147.50737	-0.23398	-2.93E-05	1138.83663	-4.05E-05	-5.09189	5.44E-09
147.56078	-0.23508	-2.94E-05	1138.79809	-4.21E-05	-4.46654	4.77E-09
147.61418	-0.23608	-2.89E-05	1138.7762	-4.36E-05	-2.69287	2.88E-09
147.66759	-0.23715	-2.94E-05	1138.92573	-4.52E-05	-4.44391	4.75E-09
147.7210	-0.23825	-2.97E-05	1139.06896	-4.68E-05	-5.01682	5.36E-09
147.7744	-0.23932	-2.98E-05	1139.19179	-4.84E-05	-7.59961	8.12E-09
147.82781	-0.24039	-2.98E-05	1139.23121	-4.99E-05	-6.81111	7.27E-09
147.88121	-0.24146	-3.00E-05	1139.1244	-5.16E-05	-5.21405	5.57E-09
147.93462	-0.24252	-3.00E-05	1138.96519	-5.32E-05	-7.44736	7.95E-09
147.98803	-0.24359	-3.01E-05	1138.75157	-5.48E-05	-6.65803	7.11E-09
148.04143	-0.24466	-3.03E-05	1138.78223	-5.64E-05	-5.1275	5.48E-09
148.09484	-0.24573	-3.03E-05	1138.9638	-5.80E-05	-4.62822	4.94E-09
148.14824	-0.24680	-3.04E-05	1138.93037	-5.96E-05	-9.2058	9.83E-09
148.20165	-0.24789	-3.05E-05	1138.82356	-6.12E-05	-3.96626	4.24E-09
148.25506	-0.24893	-3.05E-05	1138.86595	-6.29E-05	-4.43072	4.73E-09
148.30846	-0.25000	-3.05E-05	1138.93015	-6.45E-05	-5.6715	6.06E-09
148.36187	-0.25107	-3.07E-05	1139.27193	-6.61E-05	-0.27395	2.93E-10
148.41527	-0.25214	-3.06E-05	1139.57342	-6.78E-05	-4.18283	4.47E-09
148.46868	-0.25320	-3.08E-05	1139.60012	-6.94E-05	-5.13386	5.48E-09
148.52209	-0.25427	-3.09E-05	1139.60364	-7.11E-05	-3.79312	4.05E-09
148.57549	-0.25534	-3.08E-05	1139.53955	-7.27E-05	-8.22532	8.78E-09
148.6289	-0.25641	-3.10E-05	1139.45094	-7.44E-05	-2.90511	3.10E-09
148.6823	-0.25748	-3.11E-05	1139.32277	-7.60E-05	-10.45274	1.12E-08
148.73571	-0.25854	-3.11E-05	1139.33629	-7.77E-05	-1.77656	1.90E-09
148.78912	-0.25961	-3.11E-05	1139.48582	-7.94E-05	-8.31469	8.88E-09
148.84252	-0.26068	-3.12E-05	1139.52978	-8.10E-05	-3.33766	3.56E-09
148.89593	-0.26175	-3.11E-05	1139.51376	-8.27E-05	-6.8072	7.27E-09
148.94933	-0.26285	-3.13E-05	1139.60806	-8.44E-05	-1.91718	2.05E-09
149.00274	-0.26392	-3.14E-05	1139.73623	-8.60E-05	-2.23362	2.39E-09
149.05615	-0.26495	-3.13E-05	1140.00263	-8.77E-05	-5.67471	6.06E-09
149.10955	-0.26605	-3.14E-05	1140.28075	-8.94E-05	-5.16443	5.52E-09
149.16296	-0.26709	-3.15E-05	1140.31813	-9.11E-05	-8.68386	9.27E-09
149.21636	-0.26819	-3.15E-05	1140.31535	-9.28E-05	-11.91739	1.27E-08
149.26977	-0.26926	-3.16E-05	1140.08038	-9.44E-05	-9.75281	1.04E-08
149.32318	-0.27032	-3.15E-05	1139.83073	-9.61E-05	-4.4276	4.73E-09
149.37658	-0.27139	-3.15E-05	1139.54235	-9.78E-05	-5.35805	5.72E-09
149.42999	-0.27249	-3.21E-05	1139.41942	-9.95E-05	-6.99343	7.47E-09
149.48339	-0.27356	-3.19E-05	1139.54225	-1.01E-04	-8.42092	8.99E-09
149.5368	-0.2746	-3.14E-05	1139.24352	-1.03E-04	-7.57849	8.09E-09
149.59021	-0.27567	-3.16E-05	1138.57064	-1.05E-04	-4.39477	4.69E-09
149.64361	-0.27673	-3.19E-05	1138.34	-1.06E-04	-9.30258	9.94E-09
149.69702	-0.2778	-3.18E-05	1138.34	-1.08E-04	-7.51454	8.03E-09
149.75042	-0.27887	-3.18E-05	1138.36514	-1.10E-04	-7.04167	7.52E-09
149.80383	-0.27994	-3.19E-05	1138.39718	-1.11E-04	-2.63831	2.82E-09
149.85724	-0.28101	-3.18E-05	1138.47306	-1.13E-04	-7.88602	8.42E-09
149.91064	-0.28207	-3.19E-05	1138.53859	-1.15E-04	-13.62876	1.46E-08
149.96405	-0.28314	-3.20E-05	1138.25021	-1.16E-04	-6.88661	7.35E-09
150.01745	-0.28418	-3.18E-05	1138.07065	-1.18E-04	-7.99061	8.53E-09
150.07086	-0.28528	-3.20E-05	1138.43379	-1.20E-04	-6.51212	6.95E-09
150.12427	-0.28635	-3.21E-05	1138.7529	-1.22E-04	-7.7473	8.27E-09
150.17767	-0.28741	-3.20E-05	1138.96651	-1.23E-04	-8.12936	8.68E-09
150.23108	-0.28848	-3.21E-05	1139.12154	-1.25E-04	-6.32392	6.75E-09
150.28448	-0.28955	-3.20E-05	1139.19631	-1.27E-04	-10.42302	1.11E-08
150.33789	-0.29062	-3.21E-05	1139.35028	-1.28E-04	-7.95643	8.50E-09
150.3913	-0.29169	-3.22E-05	1139.56923	-1.30E-04	-12.04607	1.29E-08
150.4447	-0.29276	-3.22E-05	1139.78818	-1.32E-04	-6.02506	6.43E-09
150.49811	-0.29382	-3.21E-05	1140.00714	-1.34E-04	-10.13221	1.08E-08
150.55151	-0.29489	-3.22E-05	1140.09724	-1.35E-04	-7.18065	7.67E-09
150.60492	-0.29599	-3.23E-05	1140.15599	-1.37E-04	-6.15416	6.57E-09
150.65833	-0.29703	-3.22E-05	1140.63267	-1.39E-04	-13.18999	1.41E-08
150.71173	-0.29813	-3.23E-05	1141.10558	-1.41E-04	-8.25762	8.82E-09
150.76514	-0.29916	-3.23E-05	1141.03082	-1.42E-04	-4.10209	4.38E-09
150.81854	-0.30023	-3.24E-05	1140.92218	-1.44E-04	-7.03135	7.51E-09
150.87195	-0.30133	-3.24E-05	1140.66584	-1.46E-04	-7.77605	8.30E-09
150.92536	-0.30237	-3.24E-05	1140.39274	-1.47E-04	-9.03991	9.65E-09
150.97876	-0.30347	-3.24E-05	1140.083	-1.49E-04	-10.38141	1.11E-08
151.03217	-0.30453	-3.23E-05	1139.94301	-1.51E-04	-8.17679	8.73E-09
151.08557	-0.30557	-3.25E-05	1140.01777	-1.53E-04	-8.65344	9.24E-09
151.13898	-0.30667	-3.25E-05	1139.73404	-1.54E-04	-11.21913	1.20E-08
151.19239	-0.30774	-3.25E-05	1139.17865	-1.56E-04	-7.21263	7.70E-09
151.24579	-0.30881	-3.24E-05	1138.93563	-1.58E-04	-11.64306	1.24E-08
151.2992	-0.30988	-3.25E-05	1138.82882	-1.60E-04	-7.88858	8.43E-09
151.3526	-0.31097	-3.30E-05	1139.02557	-1.61E-04	-10.32698	1.10E-08
151.40601	-0.31204	-3.26E-05	1139.28724	-1.63E-04	-9.7289	1.04E-08
151.45942	-0.31308	-3.26E-05	1139.76227	-1.65E-04	-7.39078	7.89E-09
151.51282	-0.31415	-3.25E-05	1140.17765	-1.67E-04	-13.3429	1.43E-08
151.56623	-0.31522	-3.27E-05	1139.76644	-1.68E-04	-8.24601	8.81E-09
151.61963	-0.31631	-3.27E-05	1139.47633	-1.70E-04	-8.41287	8.98E-09
151.67304	-0.31738	-3.26E-05	1139.65256	-1.72E-04	-5.73476	6.12E-09
151.72645	-0.31842	-3.26E-05	1139.70943	-1.74E-04	-8.23311	8.79E-09
151.77985	-0.31952	-3.27E-05	1139.52786	-1.75E-04	-8.83081	9.43E-09
151.83326	-0.32059	-3.27E-05	1139.36599	-1.77E-04	-11.82791	1.26E-08
151.88666	-0.32162	-3.28E-05	1139.22714	-1.79E-04	-11.2994	1.21E-08
151.94007	-0.32272	-3.28E-05	1138.8526	-1.81E-04	-10.49832	1.12E-08
151.99348	-0.32379	-3.28E-05	1138.31323	-1.82E-04	-12.8938	1.38E-08
152.04688	-0.32486	-3.28E-05	1138.13324	-1.84E-04	-13.11028	1.40E-08
152.10029	-0.32596	-3.29E-05	1138.09586	-1.86E-04	-13.74053	1.47E-08
152.15369	-0.327	-3.29E-05	1137.75672	-1.88E-04	-10.68348	1.14E-08
152.2071	-0.32806	-3.27E-05	1137.36154	-1.89E-04	-10.36792	1.11E-08
152.26051	-0.32913	-3.29E-05	1137.95138	-1.91E-04	-13.57534	1.45E-08
152.31391	-0.3302	-3.29E-05	1138.50003	-1.93E-04	-13.95638	1.49E-08
152.36732	-0.33127	-3.29E-05	1138.39857	-1.95E-04	-13.67549	1.46E-08
152.42072	-0.33234	-3.31E-05	1138.367	-1.96E-04	-16.64583	1.78E-08
152.47413	-0.3334	-3.30E-05	1138.57527	-1.98E-04	-13.4088	1.43E-08
152.52754	-0.33447	-3.30E-05	1138.80052	-2.00E-04	-12.03917	1.29E-08
152.58094	-0.33554	-3.31E-05	1139.05685	-2.02E-04	-13.8873	1.48E-08
152.63435	-0.33661	-3.30E-05	1139.14124	-2.03E-04	-10.83874	1.16E-08
152.68775	-0.33768	-3.31E-05	1139.03977	-2.05E-04	-11.40279	1.22E-08
152.74116	-0.33878	-3.31E-05	1138.8961	-2.07E-04	-14.66692	1.57E-08
152.79457	-0.33981	-3.31E-05	1138.72521	-2.09E-04	-13.5934	1.45E-08
152.84797	-0.34088	-3.31E-05	1138.69964	-2.10E-04	-14.89758	1.59E-08
152.90138	-0.34198	-3.32E-05	1138.72634	-2.12E-04	-11.88359	1.27E-08
152.95478	-0.34305	-3.31E-05	1138.64705	-2.14E-04	-18.23012	1.95E-08
153.00819	-0.34409	-3.32E-05	1138.55093	-2.16E-04	-13.75354	1.47E-08
153.0616	-0.34515	-3.33E-05	1138.17979	-2.18E-04	-15.20349	1.62E-08
153.115	-0.34622	-3.33E-05	1137.90599	-2.19E-04	-16.15192	1.73E-08
153.16841	-0.34729	-3.33E-05	1138.38127	-2.21E-04	-14.55105	1.55E-08
153.22181	-0.34839	-3.33E-05	1138.82382	-2.23E-04	-13.75025	1.47E-08
153.27522	-0.34943	-3.34E-05	1139.1656	-2.25E-04	-15.21541	1.63E-08
153.32863	-0.35052	-3.38E-05	1139.42379	-2.26E-04	-18.36451	1.96E-08
153.38203	-0.35159	-3.35E-05	1139.54127	-2.28E-04	-16.10355	1.72E-08
153.43544	-0.3526	-3.26E-05	1139.77895	-2.30E-04	-17.18623	1.84E-08
153.48884	-0.35367	-3.34E-05	1140.13675	-2.32E-04	-16.62955	1.78E-08
153.54225	-0.35477	-3.35E-05	1140.66547	-2.34E-04	-15.39322	1.64E-08
153.59566	-0.35583	-3.35E-05	1141.29562	-2.35E-04	-18.25393	1.95E-08
153.64906	-0.3569	-3.36E-05	1141.11534	-2.37E-04	-13.65668	1.46E-08
153.70247	-0.35797	-3.37E-05	1140.6721	-2.39E-04	-19.055	2.04E-08
153.75587	-0.35904	-3.36E-05	1140.2854	-2.41E-04	-13.51943	1.44E-08
153.80928	-0.36011	-3.38E-05	1139.91222	-2.43E-04	-14.6275	1.56E-08
153.86269	-0.36118	-3.38E-05	1140.13651	-2.44E-04	-13.85741	1.48E-08
153.91609	-0.36224	-3.37E-05	1140.34174	-2.46E-04	-13.7222	1.47E-08
153.9695	-0.36334	-3.39E-05	1140.42718	-2.48E-04	-16.12976	1.72E-08
154.0229	-0.36441	-3.39E-05	1140.32455	-2.50E-04	-18.49191	1.97E-08
154.07631	-0.36548	-3.38E-05	1139.69974	-2.52E-04	-15.66581	1.67E-08
154.12972	-0.36655	-3.40E-05	1139.32	-2.53E-04	-17.39607	1.86E-08
154.18312	-0.36758	-3.40E-05	1139.32	-2.55E-04	-15.685	1.68E-08
154.23653	-0.36865	-3.40E-05	1139.33388	-2.57E-04	-18.32261	1.96E-08
154.28993	-0.36975	-3.41E-05	1139.36058	-2.59E-04	-23.29509	2.49E-08
154.34334	-0.37079	-3.41E-05	1139.42184	-2.61E-04	-14.91023	1.59E-08
154.39675	-0.37189	-3.41E-05	1139.50194	-2.62E-04	-19.03795	2.03E-08
154.45015	-0.37296	-3.42E-05	1139.27181	-2.64E-04	-16.99835	1.82E-08
154.50356	-0.37402	-3.43E-05	1138.95139	-2.66E-04	-16.8181	1.80E-08
154.55696	-0.37506	-3.42E-05	1138.85256	-2.68E-04	-19.93261	2.13E-08
154.61037	-0.37616	-3.44E-05	1138.7907	-2.70E-04	-16.26287	1.74E-08
154.66378	-0.3772	-3.42E-05	1139.15384	-2.72E-04	-19.7641	2.11E-08
154.71718	-0.3783	-3.44E-05	1139.49855	-2.73E-04	-20.23992	2.16E-08
154.77059	-0.37936	-3.45E-05	1139.7442	-2.75E-04	-18.68622	2.00E-08
154.82399	-0.38043	-3.45E-05	1139.88204	-2.77E-04	-22.71108	2.43E-08
154.8774	-0.3815	-3.45E-05	1139.74853	-2.79E-04	-25.08987	2.68E-08
154.93081	-0.3826	-3.45E-05	1139.70739	-2.81E-04	-20.28092	2.17E-08
154.98421	-0.38364	-3.46E-05	1139.79817	-2.83E-04	-20.3908	2.18E-08
155.03762	-0.3847	-3.46E-05	1139.80832	-2.85E-04	-18.35808	1.96E-08
155.09102	-0.38577	-3.47E-05	1139.74958	-2.86E-04	-18.89553	2.02E-08
155.14443	-0.38684	-3.47E-05	1139.62319	-2.88E-04	-21.04264	2.25E-08
155.19784	-0.38791	-3.48E-05	1139.46298	-2.90E-04	-18.63117	1.99E-08
155.25124	-0.38898	-3.48E-05	1139.32398	-2.92E-04	-19.8075	2.12E-08
155.30465	-0.39008	-3.54E-05	1139.19047	-2.94E-04	-15.83816	1.69E-08
155.35805	-0.39114	-3.50E-05	1139.27351	-2.96E-04	-15.35885	1.64E-08
155.41146	-0.39218	-3.44E-05	1139.38518	-2.98E-04	-21.16565	2.26E-08
155.46487	-0.39325	-3.50E-05	1139.69492	-2.99E-04	-21.21103	2.27E-08
155.51827	-0.39432	-3.50E-05	1139.9811	-3.01E-04	-18.74398	2.00E-08
155.57168	-0.39542	-3.52E-05	1140.15733	-3.03E-04	-24.60956	2.63E-08
155.62508	-0.39645	-3.53E-05	1140.24105	-3.05E-04	-18.45654	1.97E-08
155.67849	-0.39755	-3.52E-05	1140.11288	-3.07E-04	-21.07364	2.25E-08
155.7319	-0.39859	-3.54E-05	1139.92712	-3.09E-04	-30.05349	3.21E-08
155.7853	-0.39969	-3.54E-05	1139.66545	-3.11E-04	-25.30813	2.70E-08
155.83871	-0.40076	-3.54E-05	1139.56194	-3.13E-04	-22.33413	2.39E-08
155.89211	-0.40182	-3.55E-05	1139.5833	-3.15E-04	-24.56975	2.62E-08
155.94552	-0.40286	-3.55E-05	1139.39577	-3.16E-04	-24.23686	2.59E-08
155.99893	-0.40396	-3.56E-05	1139.11273	-3.18E-04	-26.65961	2.85E-08
156.05233	-0.40503	-3.57E-05	1138.94702	-3.20E-04	-25.13953	2.68E-08
156.10574	-0.4061	-3.56E-05	1138.80817	-3.22E-04	-20.62508	2.20E-08
156.15914	-0.40714	-3.57E-05	1138.9156	-3.24E-04	-21.15312	2.26E-08
156.21255	-0.4082	-3.59E-05	1139.04538	-3.26E-04	-22.71701	2.43E-08
156.26596	-0.40927	-3.58E-05	1139.26967	-3.28E-04	-24.65577	2.63E-08
156.31936	-0.41037	-3.59E-05	1139.45942	-3.30E-04	-24.38125	2.60E-08
156.37277	-0.41144	-3.60E-05	1139.50748	-3.32E-04	-24.98292	2.67E-08
156.42617	-0.41248	-3.60E-05	1139.67647	-3.34E-04	-26.89547	2.87E-08
156.47958	-0.41357	-3.61E-05	1140.09835	-3.36E-04	-22.16875	2.37E-08
156.53299	-0.41461	-3.61E-05	1140.30351	-3.37E-04	-23.20659	2.48E-08
156.58639	-0.41571	-3.63E-05	1140.24477	-3.39E-04	-27.32777	2.92E-08
156.6398	-0.41678	-3.62E-05	1140.18294	-3.41E-04	-27.9618	2.99E-08
156.6932	-0.41785	-3.64E-05	1140.11885	-3.43E-04	-26.55336	2.84E-08
156.74661	-0.41891	-3.64E-05	1140.11885	-3.45E-04	-23.20265	2.48E-08
156.80002	-0.41998	-3.65E-05	1140.14555	-3.47E-04	-22.6966	2.42E-08
156.85342	-0.42105	-3.65E-05	1140.28794	-3.49E-04	-26.21811	2.80E-08
156.90683	-0.42209	-3.65E-05	1140.45349	-3.51E-04	-27.20207	2.91E-08
156.96023	-0.42319	-3.66E-05	1140.23939	-3.53E-04	-25.15446	2.69E-08
157.01364	-0.42426	-3.67E-05	1140.07283	-3.55E-04	-25.20999	2.69E-08
157.06705	-0.42532	-3.67E-05	1140.5588	-3.57E-04	-27.30439	2.92E-08
157.12045	-0.42639	-3.68E-05	1140.94576	-3.59E-04	-31.48413	3.36E-08
157.17386	-0.42746	-3.69E-05	1140.97246	-3.61E-04	-27.75382	2.96E-08
157.22726	-0.42853	-3.73E-05	1140.93138	-3.63E-04	-32.39614	3.46E-08
157.28067	-0.42963	-3.71E-05	1140.76049	-3.65E-04	-28.19158	3.01E-08
157.33408	-0.43066	-3.66E-05	1140.52176	-3.67E-04	-28.09282	3.00E-08
157.38748	-0.43173	-3.70E-05	1140.20669	-3.69E-04	-27.44485	2.93E-08
157.44089	-0.4328	-3.72E-05	1139.98421	-3.71E-04	-28.64995	3.06E-08
157.49429	-0.43387	-3.72E-05	1139.824	-3.73E-04	-29.99055	3.20E-08
157.5477	-0.43494	-3.73E-05	1139.53983	-3.75E-04	-31.6572	3.38E-08
157.60111	-0.43604	-3.73E-05	1139.20874	-3.77E-04	-27.3268	2.92E-08
157.65451	-0.43707	-3.74E-05	1139.19643	-3.79E-04	-28.68823	3.06E-08
157.70792	-0.43817	-3.76E-05	1139.23916	-3.81E-04	-32.52853	3.47E-08
157.76132	-0.43924	-3.76E-05	1139.39181	-3.83E-04	-30.88889	3.30E-08
157.81473	-0.44028	-3.76E-05	1139.52597	-3.85E-04	-32.21596	3.44E-08
157.86814	-0.44138	-3.76E-05	1139.48859	-3.87E-04	-31.18591	3.33E-08
157.92154	-0.44244	-3.77E-05	1139.45247	-3.89E-04	-29.50787	3.15E-08
157.97495	-0.44351	-3.78E-05	1139.42042	-3.91E-04	-30.88136	3.30E-08
158.02835	-0.44458	-3.79E-05	1139.43485	-3.93E-04	-29.08224	3.11E-08
158.08176	-0.44565	-3.79E-05	1139.53098	-3.95E-04	-37.76982	4.03E-08
158.13517	-0.44669	-3.80E-05	1139.75795	-3.97E-04	-32.95566	3.52E-08
158.18857	-0.44778	-3.81E-05	1140.12109	-3.99E-04	-32.24059	3.44E-08
158.24198	-0.44885	-3.82E-05	1140.14129	-4.01E-04	-34.05204	3.64E-08
158.29538	-0.44992	-3.82E-05	1139.94904	-4.03E-04	-36.78046	3.93E-08
158.34879	-0.45099	-3.82E-05	1139.98354	-4.05E-04	-32.64842	3.49E-08
158.4022	-0.45206	-3.84E-05	1140.09569	-4.07E-04	-35.63836	3.81E-08
158.4556	-0.45313	-3.84E-05	1140.23578	-4.09E-04	-30.81385	3.29E-08
158.50901	-0.45419	-3.85E-05	1140.37997	-4.11E-04	-32.30699	3.45E-08
158.56241	-0.45526	-3.85E-05	1140.39068	-4.13E-04	-40.70675	4.35E-08
158.61582	-0.45633	-3.87E-05	1140.33476	-4.15E-04	-36.56287	3.90E-08
158.66923	-0.4574	-3.87E-05	1139.82209	-4.17E-04	-35.70215	3.81E-08
158.72263	-0.45847	-3.88E-05	1139.55425	-4.19E-04	-37.92322	4.05E-08
158.77604	-0.45953	-3.88E-05	1140.00284	-4.22E-04	-36.2626	3.87E-08
158.82944	-0.4606	-3.89E-05	1140.42693	-4.24E-04	-37.35485	3.99E-08
158.88285	-0.46167	-3.90E-05	1140.81144	-4.26E-04	-34.16341	3.65E-08
158.93626	-0.46274	-3.91E-05	1140.90203	-4.28E-04	-35.68835	3.81E-08
158.98966	-0.46381	-3.91E-05	1140.70978	-4.30E-04	-34.21157	3.65E-08
159.04307	-0.4649	-3.92E-05	1140.56516	-4.32E-04	-34.62833	3.70E-08
159.09647	-0.46594	-3.93E-05	1140.44767	-4.34E-04	-39.22008	4.19E-08
159.14988	-0.46704	-3.94E-05	1140.46491	-4.36E-04	-36.58601	3.91E-08
159.20329	-0.46811	-4.00E-05	1140.52365	-4.38E-04	-37.07596	3.96E-08
159.25669	-0.46915	-3.97E-05	1140.23469	-4.40E-04	-36.79141	3.93E-08
159.3101	-0.47021	-3.88E-05	1139.90235	-4.43E-04	-41.43903	4.43E-08
159.3635	-0.47128	-3.95E-05	1139.50717	-4.45E-04	-38.00879	4.06E-08
159.41691	-0.47235	-3.97E-05	1139.19352	-4.47E-04	-35.32691	3.77E-08
159.47032	-0.47342	-4.00E-05	1139.35373	-4.49E-04	-36.52055	3.90E-08
159.52372	-0.47449	-3.99E-05	1139.42313	-4.51E-04	-38.22134	4.08E-08
159.57713	-0.47556	-4.00E-05	1139.25224	-4.53E-04	-36.90021	3.94E-08
159.63053	-0.47662	-4.01E-05	1139.22079	-4.55E-04	-40.09755	4.28E-08
159.68394	-0.47769	-4.02E-05	1139.39702	-4.57E-04	-43.82009	4.68E-08
159.73735	-0.47876	-4.03E-05	1139.53652	-4.60E-04	-42.90156	4.58E-08
159.79075	-0.47983	-4.04E-05	1139.64332	-4.62E-04	-41.79593	4.46E-08
159.84416	-0.4809	-4.04E-05	1139.5713	-4.64E-04	-39.91724	4.26E-08
159.89756	-0.48196	-4.05E-05	1139.40575	-4.66E-04	-42.54944	4.54E-08
159.95097	-0.48306	-4.06E-05	1139.39093	-4.68E-04	-36.94895	3.95E-08
160.00438	-0.4841	-4.08E-05	1139.41764	-4.70E-04	-41.0934	4.39E-08
160.05778	-0.48517	-4.07E-05	1139.60983	-4.73E-04	-43.34182	4.63E-08
160.11119	-0.48624	-4.09E-05	1139.81935	-4.75E-04	-41.7224	4.46E-08
160.16459	-0.4873	-4.11E-05	1140.05967	-4.77E-04	-40.51241	4.33E-08
160.218	-0.48837	-4.10E-05	1140.29287	-4.79E-04	-40.94751	4.37E-08
160.27141	-0.48947	-4.13E-05	1140.49046	-4.81E-04	-41.53488	4.44E-08
160.32481	-0.49054	-4.13E-05	1140.62529	-4.84E-04	-44.37206	4.74E-08
160.37822	-0.49158	-4.14E-05	1140.60927	-4.86E-04	-44.94731	4.80E-08
160.43162	-0.49268	-4.16E-05	1140.49877	-4.88E-04	-45.28839	4.84E-08
160.48503	-0.49371	-4.16E-05	1140.25845	-4.90E-04	-47.12733	5.03E-08
160.53844	-0.49481	-4.17E-05	1140.15	-4.92E-04	-45.45834	4.85E-08
160.59184	-0.49588	-4.19E-05	1140.15	-4.95E-04	-42.62699	4.55E-08
160.64525	-0.49695	-4.20E-05	1139.96946	-4.97E-04	-40.56723	4.33E-08
160.69865	-0.49802	-4.20E-05	1139.70244	-4.99E-04	-39.6586	4.24E-08
160.75206	-0.49908	-4.21E-05	1139.77874	-5.01E-04	-48.92063	5.22E-08
160.80547	-0.49957	-4.22E-05	1139.93895	-5.04E-04	-47.48129	5.07E-08
160.85887	-0.50079	-4.23E-05	1140.24832	-5.06E-04	-46.53758	4.97E-08
160.91228	-0.50171	-4.25E-05	1140.56593	-5.08E-04	-46.37364	4.95E-08
160.96568	-0.50293	-4.26E-05	1140.83828	-5.10E-04	-49.30389	5.27E-08
161.01909	-0.50385	-4.27E-05	1141.01234	-5.13E-04	-48.08537	5.14E-08
161.0725	-0.50507	-4.28E-05	1140.75601	-5.15E-04	-45.72163	4.88E-08
161.1259	-0.50629	-4.35E-05	1140.59841	-5.17E-04	-47.90206	5.12E-08
161.17931	-0.5072	-4.32E-05	1140.65715	-5.20E-04	-44.83454	4.79E-08
161.23271	-0.50842	-4.33E-05	1140.73708	-5.22E-04	-51.3943	5.49E-08
161.28612	-0.50934	-4.19E-05	1140.84389	-5.24E-04	-50.26455	5.37E-08
161.33953	-0.51025	-4.30E-05	1140.66543	-5.27E-04	-47.43495	5.07E-08
161.39293	-0.51147	-4.35E-05	1140.27025	-5.29E-04	-50.88929	5.43E-08
161.44634	-0.5127	-4.36E-05	1140.1017	-5.31E-04	-48.43801	5.17E-08
161.49974	-0.51361	-4.38E-05	1140.03228	-5.34E-04	-51.2532	5.47E-08
